Brown University Keck/NASA Relab Spectrum LR-CMP-098/BKR1LR098
Wavelength(micron)	Reflectance
0.3	0.07532
0.305	0.07620
0.31	0.07840
0.315	0.07990
0.32	0.08165
0.325	0.08296
0.33	0.08392
0.335	0.08503
0.34	0.08620
0.345	0.08735
0.35	0.08864
0.355	0.09003
0.36	0.09128
0.365	0.09260
0.37	0.09388
0.375	0.09523
0.38	0.09653
0.385	0.09784
0.39	0.09913
0.395	0.10034
0.4	0.10140
0.405	0.10242
0.41	0.10337
0.415	0.10427
0.42	0.10518
0.425	0.10622
0.43	0.10720
0.435	0.10806
0.44	0.10898
0.445	0.10979
0.45	0.11057
0.455	0.11136
0.46	0.11215
0.465	0.11290
0.47	0.11381
0.475	0.11470
0.48	0.11556
0.485	0.11630
0.49	0.11699
0.495	0.11761
0.5	0.11801
0.505	0.11853
0.51	0.11918
0.515	0.11987
0.52	0.12070
0.525	0.12156
0.53	0.12237
0.535	0.12324
0.54	0.12408
0.545	0.12483
0.55	0.12577
0.555	0.12651
0.56	0.12709
0.565	0.12771
0.57	0.12839
0.575	0.12902
0.58	0.12984
0.585	0.13077
0.59	0.13164
0.595	0.13250
0.6	0.13343
0.605	0.13428
0.61	0.13506
0.615	0.13592
0.62	0.13664
0.625	0.13706
0.63	0.13754
0.635	0.13805
0.64	0.13854
0.645	0.13898
0.65	0.13956
0.655	0.14011
0.66	0.14070
0.665	0.14119
0.67	0.14173
0.675	0.14218
0.68	0.14251
0.685	0.14278
0.69	0.14289
0.695	0.14326
0.7	0.14380
0.705	0.14434
0.71	0.14485
0.715	0.14568
0.72	0.14622
0.725	0.14677
0.73	0.14727
0.735	0.14789
0.74	0.14832
0.745	0.14887
0.75	0.14924
0.755	0.14972
0.76	0.15015
0.765	0.15064
0.77	0.15105
0.775	0.15151
0.78	0.15188
0.785	0.15226
0.79	0.15264
0.795	0.15305
0.8	0.15351
0.805	0.15415
0.81	0.15474
0.815	0.15528
0.82	0.15555
0.825	0.15587
0.83	0.15587
0.835	0.15607
0.84	0.15626
0.845	0.15667
0.85	0.15707
0.855	0.15779
0.86	0.15791
0.865	0.15826
0.87	0.15819
0.875	0.15791
0.88	0.15844
0.885	0.15816
0.89	0.15873
0.895	0.15905
0.9	0.15901
0.905	0.16017
0.91	0.16002
0.915	0.16021
0.92	0.16090
0.925	0.16134
0.93	0.16120
0.935	0.16222
0.94	0.16234
0.945	0.16222
0.95	0.16280
0.955	0.16373
0.96	0.16394
0.965	0.16490
0.97	0.16534
0.975	0.16554
0.98	0.16600
0.985	0.16641
0.99	0.16643
0.995	0.16809
1	0.16801
1.005	0.16958
1.01	0.16928
1.015	0.17002
1.02	0.17055
1.025	0.17112
1.03	0.17156
1.035	0.17259
1.04	0.17276
1.045	0.17373
1.05	0.17427
1.055	0.17434
1.06	0.17526
1.065	0.17625
1.07	0.17661
1.075	0.17822
1.08	0.17868
1.085	0.17963
1.09	0.18073
1.095	0.18160
1.1	0.18224
1.105	0.18354
1.11	0.18373
1.115	0.18420
1.12	0.18533
1.125	0.18658
1.13	0.18724
1.135	0.18802
1.14	0.18886
1.145	0.18961
1.15	0.18940
1.155	0.19013
1.16	0.19076
1.165	0.19117
1.17	0.19205
1.175	0.19244
1.18	0.19327
1.185	0.19469
1.19	0.19510
1.195	0.19525
1.2	0.19616
1.205	0.19666
1.21	0.19735
1.215	0.19777
1.22	0.19836
1.225	0.19895
1.23	0.19956
1.235	0.19973
1.24	0.20013
1.245	0.20061
1.25	0.20087
1.255	0.20151
1.26	0.20232
1.265	0.20298
1.27	0.20345
1.275	0.20367
1.28	0.20420
1.285	0.20564
1.29	0.20645
1.295	0.20757
1.3	0.20827
1.305	0.20886
1.31	0.20957
1.315	0.21054
1.32	0.21096
1.325	0.21167
1.33	0.21244
1.335	0.21348
1.34	0.21365
1.345	0.21479
1.35	0.21527
1.355	0.21554
1.36	0.21656
1.365	0.21732
1.37	0.21759
1.375	0.21861
1.38	0.21865
1.385	0.22112
1.39	0.22219
1.395	0.22178
1.4	0.22284
1.405	0.22335
1.41	0.22436
1.415	0.22507
1.42	0.22589
1.425	0.22629
1.43	0.22704
1.435	0.22788
1.44	0.22855
1.445	0.22922
1.45	0.22994
1.455	0.23091
1.46	0.23161
1.465	0.23308
1.47	0.23371
1.475	0.23457
1.48	0.23529
1.485	0.23602
1.49	0.23635
1.495	0.23695
1.5	0.23742
1.505	0.23799
1.51	0.23834
1.515	0.23901
1.52	0.23934
1.525	0.23973
1.53	0.23990
1.535	0.24054
1.54	0.24115
1.545	0.24202
1.55	0.24310
1.555	0.24469
1.56	0.24536
1.565	0.24582
1.57	0.24630
1.575	0.24614
1.58	0.24652
1.585	0.24721
1.59	0.24768
1.595	0.24864
1.6	0.24923
1.605	0.24989
1.61	0.25041
1.615	0.25096
1.62	0.25084
1.625	0.25085
1.63	0.25089
1.635	0.25105
1.64	0.25141
1.645	0.25227
1.65	0.25335
1.655	0.25223
1.66	0.25346
1.665	0.25381
1.67	0.25390
1.675	0.25438
1.68	0.25473
1.685	0.25516
1.69	0.25576
1.695	0.25669
1.7	0.25627
1.705	0.25668
1.71	0.25656
1.715	0.25779
1.72	0.25784
1.725	0.25866
1.73	0.25842
1.735	0.25989
1.74	0.25911
1.745	0.26038
1.75	0.25983
1.755	0.26102
1.76	0.26059
1.765	0.26152
1.77	0.26230
1.775	0.26206
1.78	0.26295
1.785	0.26301
1.79	0.26286
1.795	0.26340
1.8	0.26345
1.805	0.26327
1.81	0.26412
1.815	0.26490
1.82	0.26572
1.825	0.26570
1.83	0.26607
1.835	0.26634
1.84	0.26641
1.845	0.26669
1.85	0.26681
1.855	0.26682
1.86	0.26735
1.865	0.26787
1.87	0.26803
1.875	0.26849
1.88	0.26918
1.885	0.26940
1.89	0.27023
1.895	0.27081
1.9	0.27110
1.905	0.27147
1.91	0.27177
1.915	0.27194
1.92	0.27233
1.925	0.27242
1.93	0.27299
1.935	0.27445
1.94	0.27445
1.945	0.27536
1.95	0.27548
1.955	0.27641
1.96	0.27570
1.965	0.27553
1.97	0.27548
1.975	0.27671
1.98	0.27751
1.985	0.27833
1.99	0.27812
1.995	0.27834
2	0.27883
2.005	0.27952
2.01	0.27987
2.015	0.28073
2.02	0.28135
2.025	0.28161
2.03	0.28200
2.035	0.28209
2.04	0.28269
2.045	0.28282
2.05	0.28334
2.055	0.28396
2.06	0.28448
2.065	0.28519
2.07	0.28607
2.075	0.28668
2.08	0.28680
2.085	0.28740
2.09	0.28770
2.095	0.28843
2.1	0.28969
2.105	0.29061
2.11	0.29134
2.115	0.29159
2.12	0.29175
2.125	0.29184
2.13	0.29236
2.135	0.29231
2.14	0.29279
2.145	0.29491
2.15	0.29490
2.155	0.29542
2.16	0.29627
2.165	0.29612
2.17	0.29670
2.175	0.29725
2.18	0.29777
2.185	0.29859
2.19	0.29910
2.195	0.30007
2.2	0.30072
2.205	0.30145
2.21	0.30201
2.215	0.30307
2.22	0.30363
2.225	0.30439
2.23	0.30531
2.235	0.30603
2.24	0.30667
2.245	0.30755
2.25	0.30818
2.255	0.30892
2.26	0.30990
2.265	0.31064
2.27	0.31084
2.275	0.31163
2.28	0.31221
2.285	0.31283
2.29	0.31349
2.295	0.31457
2.3	0.31525
2.305	0.31600
2.31	0.31652
2.315	0.31679
2.32	0.31709
2.325	0.31759
2.33	0.31803
2.335	0.31857
2.34	0.31935
2.345	0.32014
2.35	0.32086
2.355	0.32167
2.36	0.32218
2.365	0.32266
2.37	0.32281
2.375	0.32336
2.38	0.32381
2.385	0.32489
2.39	0.32562
2.395	0.32658
2.4	0.32730
2.405	0.32785
2.41	0.32815
2.415	0.32902
2.42	0.32949
2.425	0.33013
2.43	0.33105
2.435	0.33183
2.44	0.33235
2.445	0.33309
2.45	0.33368
2.455	0.33409
2.46	0.33451
2.465	0.33511
2.47	0.33585
2.475	0.33661
2.48	0.33750
2.485	0.33849
2.49	0.33926
2.495	0.34019
2.5	0.34076
2.505	0.34111
2.51	0.34135
2.515	0.34185
2.52	0.34218
2.525	0.34282
2.53	0.34365
2.535	0.34455
2.54	0.34476
2.545	0.34450
2.55	0.34568
2.5519	0.34580
2.5531	0.34591
2.5544	0.34599
2.5557	0.34610
2.5569	0.34628
2.5582	0.34638
2.5594	0.34652
2.5607	0.34674
2.562	0.34685
2.5632	0.34697
2.5645	0.34714
2.5658	0.34716
2.5671	0.34711
2.5683	0.34726
2.5696	0.34747
2.5709	0.34747
2.5721	0.34760
2.5734	0.34791
2.5747	0.34793
2.576	0.34805
2.5773	0.34820
2.5785	0.34816
2.5798	0.34827
2.5811	0.34851
2.5824	0.34857
2.5837	0.34879
2.585	0.34880
2.5863	0.34886
2.5875	0.34904
2.5888	0.34913
2.5901	0.34921
2.5914	0.34923
2.5927	0.34943
2.594	0.34992
2.5953	0.35018
2.5966	0.34986
2.5979	0.34977
2.5992	0.34983
2.6005	0.34997
2.6018	0.35015
2.6031	0.35029
2.6044	0.35052
2.6058	0.35075
2.6071	0.35068
2.6084	0.35073
2.6097	0.35082
2.611	0.35084
2.6123	0.35095
2.6136	0.35105
2.6149	0.35110
2.6163	0.35140
2.6176	0.35148
2.6189	0.35145
2.6202	0.35177
2.6216	0.35171
2.6229	0.35168
2.6242	0.35181
2.6255	0.35198
2.6269	0.35219
2.6282	0.35209
2.6295	0.35234
2.6309	0.35256
2.6322	0.35240
2.6335	0.35246
2.6349	0.35255
2.6362	0.35260
2.6376	0.35273
2.6389	0.35284
2.6402	0.35295
2.6416	0.35302
2.6429	0.35309
2.6443	0.35322
2.6456	0.35336
2.647	0.35335
2.6483	0.35342
2.6497	0.35349
2.651	0.35361
2.6524	0.35380
2.6538	0.35378
2.6551	0.35384
2.6565	0.35391
2.6578	0.35397
2.6592	0.35417
2.6606	0.35420
2.6619	0.35424
2.6633	0.35431
2.6647	0.35462
2.666	0.35484
2.6674	0.35470
2.6688	0.35449
2.6701	0.35476
2.6715	0.35449
2.6729	0.35421
2.6743	0.35430
2.6757	0.35444
2.677	0.35455
2.6784	0.35452
2.6798	0.35445
2.6812	0.35431
2.6826	0.35436
2.684	0.35436
2.6854	0.35429
2.6868	0.35428
2.6881	0.35415
2.6895	0.35404
2.6909	0.35395
2.6923	0.35392
2.6937	0.35395
2.6951	0.35379
2.6965	0.35354
2.6979	0.35330
2.6993	0.35315
2.7008	0.35311
2.7021	0.35294
2.7036	0.35260
2.705	0.35239
2.7064	0.35225
2.7078	0.35212
2.7092	0.35198
2.7106	0.35169
2.7121	0.35124
2.7135	0.35088
2.7149	0.35065
2.7163	0.35037
2.7177	0.35007
2.7192	0.34982
2.7206	0.34967
2.722	0.34903
2.7234	0.34864
2.7249	0.34837
2.7263	0.34774
2.7277	0.34720
2.7292	0.34672
2.7306	0.34624
2.7321	0.34573
2.7335	0.34531
2.7349	0.34497
2.7364	0.34435
2.7378	0.34388
2.7393	0.34350
2.7407	0.34290
2.7422	0.34213
2.7436	0.34144
2.7451	0.34088
2.7465	0.34030
2.748	0.33969
2.7494	0.33908
2.7509	0.33855
2.7524	0.33798
2.7538	0.33748
2.7553	0.33710
2.7567	0.33619
2.7582	0.33537
2.7597	0.33476
2.7611	0.33425
2.7626	0.33376
2.7641	0.33307
2.7656	0.33241
2.767	0.33191
2.7685	0.33132
2.77	0.33072
2.7715	0.33010
2.773	0.32940
2.7744	0.32878
2.7759	0.32829
2.7774	0.32775
2.7789	0.32717
2.7804	0.32677
2.7819	0.32629
2.7834	0.32573
2.7849	0.32526
2.7864	0.32491
2.7879	0.32441
2.7894	0.32376
2.7909	0.32336
2.7924	0.32298
2.7939	0.32258
2.7954	0.32221
2.7969	0.32184
2.7984	0.32147
2.7999	0.32112
2.8014	0.32080
2.8029	0.32058
2.8044	0.32023
2.806	0.31984
2.8075	0.31951
2.809	0.31920
2.8105	0.31893
2.8121	0.31867
2.8136	0.31844
2.8151	0.31818
2.8166	0.31793
2.8182	0.31776
2.8197	0.31747
2.8212	0.31716
2.8228	0.31700
2.8243	0.31687
2.8259	0.31673
2.8274	0.31656
2.8289	0.31636
2.8305	0.31622
2.832	0.31613
2.8336	0.31600
2.8351	0.31588
2.8367	0.31567
2.8382	0.31546
2.8398	0.31537
2.8413	0.31532
2.8429	0.31523
2.8444	0.31510
2.846	0.31496
2.8476	0.31486
2.8491	0.31476
2.8507	0.31465
2.8523	0.31456
2.8538	0.31446
2.8554	0.31431
2.857	0.31427
2.8586	0.31418
2.8601	0.31408
2.8617	0.31400
2.8633	0.31393
2.8649	0.31388
2.8665	0.31379
2.8681	0.31372
2.8696	0.31368
2.8712	0.31366
2.8728	0.31352
2.8744	0.31338
2.876	0.31345
2.8776	0.31346
2.8792	0.31341
2.8808	0.31332
2.8824	0.31310
2.884	0.31298
2.8856	0.31306
2.8872	0.31316
2.8888	0.31319
2.8904	0.31315
2.892	0.31312
2.8937	0.31310
2.8953	0.31304
2.8969	0.31301
2.8985	0.31303
2.9001	0.31304
2.9018	0.31302
2.9034	0.31300
2.905	0.31295
2.9066	0.31294
2.9083	0.31289
2.9099	0.31271
2.9115	0.31260
2.9132	0.31267
2.9148	0.31267
2.9164	0.31268
2.9181	0.31275
2.9197	0.31279
2.9214	0.31281
2.923	0.31280
2.9247	0.31279
2.9263	0.31283
2.928	0.31284
2.9296	0.31275
2.9313	0.31275
2.9329	0.31281
2.9346	0.31286
2.9363	0.31295
2.9379	0.31298
2.9396	0.31278
2.9413	0.31267
2.9429	0.31290
2.9446	0.31305
2.9463	0.31301
2.9479	0.31287
2.9496	0.31288
2.9513	0.31307
2.953	0.31316
2.9547	0.31320
2.9564	0.31324
2.958	0.31326
2.9597	0.31326
2.9614	0.31330
2.9631	0.31332
2.9648	0.31334
2.9665	0.31326
2.9682	0.31316
2.9699	0.31325
2.9716	0.31342
2.9733	0.31357
2.975	0.31367
2.9767	0.31376
2.9784	0.31381
2.9801	0.31386
2.9818	0.31397
2.9836	0.31397
2.9853	0.31395
2.987	0.31413
2.9887	0.31429
2.9904	0.31436
2.9922	0.31449
2.9939	0.31457
2.9956	0.31460
2.9974	0.31477
2.9991	0.31491
3.0008	0.31510
3.0026	0.31525
3.0043	0.31538
3.0061	0.31546
3.0078	0.31559
3.0095	0.31577
3.0113	0.31592
3.013	0.31609
3.0148	0.31627
3.0165	0.31639
3.0183	0.31655
3.0201	0.31666
3.0218	0.31664
3.0236	0.31660
3.0253	0.31665
3.0271	0.31696
3.0289	0.31735
3.0306	0.31756
3.0324	0.31767
3.0342	0.31777
3.036	0.31792
3.0377	0.31800
3.0395	0.31825
3.0413	0.31856
3.0431	0.31872
3.0449	0.31888
3.0467	0.31908
3.0485	0.31926
3.0503	0.31944
3.0521	0.31964
3.0538	0.31977
3.0556	0.31988
3.0574	0.31998
3.0593	0.32033
3.0611	0.32071
3.0629	0.32093
3.0647	0.32110
3.0665	0.32129
3.0683	0.32153
3.0701	0.32172
3.0719	0.32187
3.0738	0.32214
3.0756	0.32240
3.0774	0.32257
3.0792	0.32273
3.0811	0.32302
3.0829	0.32337
3.0847	0.32357
3.0866	0.32379
3.0884	0.32401
3.0902	0.32420
3.0921	0.32428
3.0939	0.32451
3.0958	0.32492
3.0976	0.32523
3.0995	0.32550
3.1013	0.32574
3.1032	0.32597
3.1051	0.32620
3.1069	0.32643
3.1088	0.32667
3.1106	0.32690
3.1125	0.32717
3.1144	0.32742
3.1162	0.32768
3.1181	0.32790
3.12	0.32815
3.1219	0.32846
3.1238	0.32874
3.1256	0.32899
3.1275	0.32923
3.1294	0.32948
3.1313	0.32973
3.1332	0.32999
3.1351	0.33025
3.137	0.33057
3.1389	0.33084
3.1408	0.33108
3.1427	0.33137
3.1446	0.33163
3.1465	0.33192
3.1484	0.33224
3.1503	0.33254
3.1522	0.33279
3.1541	0.33304
3.1561	0.33329
3.158	0.33357
3.1599	0.33386
3.1619	0.33419
3.1638	0.33446
3.1657	0.33471
3.1676	0.33498
3.1696	0.33524
3.1715	0.33533
3.1735	0.33555
3.1754	0.33602
3.1773	0.33641
3.1793	0.33668
3.1812	0.33693
3.1832	0.33721
3.1851	0.33738
3.1871	0.33767
3.1891	0.33803
3.191	0.33831
3.193	0.33856
3.195	0.33883
3.1969	0.33911
3.1989	0.33937
3.2009	0.33958
3.2029	0.33972
3.2048	0.33979
3.2068	0.34000
3.2088	0.34027
3.2108	0.34064
3.2128	0.34107
3.2148	0.34134
3.2168	0.34149
3.2188	0.34178
3.2208	0.34208
3.2228	0.34232
3.2248	0.34254
3.2268	0.34275
3.2288	0.34303
3.2308	0.34329
3.2328	0.34354
3.2348	0.34368
3.2369	0.34385
3.2389	0.34411
3.2409	0.34428
3.2429	0.34443
3.2449	0.34464
3.247	0.34475
3.249	0.34495
3.2511	0.34534
3.2531	0.34570
3.2551	0.34593
3.2572	0.34613
3.2592	0.34626
3.2613	0.34647
3.2633	0.34682
3.2654	0.34713
3.2674	0.34735
3.2695	0.34754
3.2716	0.34778
3.2736	0.34805
3.2757	0.34828
3.2778	0.34851
3.2798	0.34883
3.2819	0.34912
3.284	0.34930
3.2861	0.34944
3.2882	0.34966
3.2902	0.35005
3.2923	0.35038
3.2944	0.35053
3.2965	0.35068
3.2986	0.35096
3.3007	0.35123
3.3028	0.35153
3.3049	0.35176
3.307	0.35195
3.3091	0.35218
3.3113	0.35238
3.3134	0.35254
3.3155	0.35266
3.3176	0.35270
3.3197	0.35287
3.3219	0.35317
3.324	0.35353
3.3261	0.35379
3.3283	0.35398
3.3304	0.35411
3.3325	0.35422
3.3347	0.35428
3.3368	0.35436
3.339	0.35445
3.3411	0.35438
3.3433	0.35444
3.3454	0.35457
3.3476	0.35455
3.3498	0.35452
3.3519	0.35435
3.3541	0.35409
3.3563	0.35390
3.3584	0.35377
3.3606	0.35348
3.3628	0.35308
3.365	0.35268
3.3672	0.35226
3.3694	0.35182
3.3715	0.35148
3.3737	0.35126
3.3759	0.35120
3.3781	0.35134
3.3803	0.35169
3.3825	0.35210
3.3847	0.35249
3.3869	0.35282
3.3892	0.35312
3.3914	0.35319
3.3936	0.35302
3.3958	0.35273
3.3981	0.35242
3.4003	0.35211
3.4025	0.35165
3.4047	0.35115
3.407	0.35070
3.4092	0.35031
3.4115	0.34996
3.4137	0.34973
3.416	0.34984
3.4182	0.35019
3.4205	0.35080
3.4227	0.35161
3.425	0.35248
3.4273	0.35333
3.4295	0.35416
3.4318	0.35487
3.4341	0.35563
3.4363	0.35639
3.4386	0.35701
3.4409	0.35754
3.4432	0.35803
3.4455	0.35856
3.4478	0.35906
3.4501	0.35946
3.4523	0.35982
3.4546	0.36023
3.4569	0.36069
3.4593	0.36108
3.4616	0.36143
3.4639	0.36168
3.4662	0.36183
3.4685	0.36193
3.4708	0.36200
3.4732	0.36206
3.4755	0.36220
3.4778	0.36231
3.4801	0.36236
3.4825	0.36263
3.4848	0.36295
3.4872	0.36309
3.4895	0.36314
3.4919	0.36312
3.4942	0.36306
3.4966	0.36298
3.4989	0.36300
3.5013	0.36319
3.5037	0.36368
3.506	0.36440
3.5084	0.36529
3.5108	0.36627
3.5132	0.36723
3.5155	0.36812
3.5179	0.36889
3.5203	0.36943
3.5227	0.36984
3.5251	0.37037
3.5275	0.37085
3.5299	0.37123
3.5323	0.37159
3.5347	0.37190
3.5371	0.37220
3.5395	0.37248
3.5419	0.37275
3.5444	0.37302
3.5468	0.37329
3.5492	0.37352
3.5517	0.37377
3.5541	0.37402
3.5565	0.37428
3.559	0.37449
3.5614	0.37474
3.5639	0.37499
3.5663	0.37525
3.5688	0.37545
3.5712	0.37566
3.5737	0.37586
3.5761	0.37611
3.5786	0.37634
3.5811	0.37655
3.5836	0.37675
3.586	0.37697
3.5885	0.37723
3.591	0.37749
3.5935	0.37770
3.596	0.37792
3.5985	0.37814
3.601	0.37833
3.6035	0.37848
3.606	0.37870
3.6085	0.37894
3.611	0.37916
3.6135	0.37934
3.6161	0.37955
3.6186	0.37974
3.6211	0.37990
3.6236	0.38007
3.6262	0.38028
3.6287	0.38049
3.6313	0.38069
3.6338	0.38085
3.6363	0.38101
3.6389	0.38118
3.6414	0.38138
3.644	0.38156
3.6466	0.38174
3.6491	0.38194
3.6517	0.38212
3.6543	0.38230
3.6569	0.38249
3.6594	0.38266
3.662	0.38286
3.6646	0.38302
3.6672	0.38315
3.6698	0.38332
3.6724	0.38352
3.675	0.38373
3.6776	0.38396
3.6802	0.38416
3.6828	0.38436
3.6854	0.38453
3.6881	0.38471
3.6907	0.38487
3.6933	0.38508
3.6959	0.38526
3.6986	0.38545
3.7012	0.38566
3.7039	0.38585
3.7065	0.38602
3.7092	0.38621
3.7118	0.38639
3.7145	0.38657
3.7171	0.38675
3.7198	0.38693
3.7225	0.38708
3.7252	0.38725
3.7278	0.38740
3.7305	0.38757
3.7332	0.38774
3.7359	0.38791
3.7386	0.38805
3.7413	0.38822
3.744	0.38840
3.7467	0.38857
3.7494	0.38873
3.7521	0.38888
3.7548	0.38902
3.7576	0.38921
3.7603	0.38938
3.763	0.38955
3.7657	0.38971
3.7685	0.38986
3.7712	0.38997
3.774	0.39009
3.7767	0.39024
3.7795	0.39042
3.7822	0.39058
3.785	0.39071
3.7877	0.39081
3.7905	0.39096
3.7933	0.39109
3.7961	0.39120
3.7988	0.39132
3.8016	0.39147
3.8044	0.39162
3.8072	0.39174
3.81	0.39183
3.8128	0.39198
3.8156	0.39209
3.8184	0.39221
3.8212	0.39232
3.8241	0.39246
3.8269	0.39258
3.8297	0.39268
3.8325	0.39276
3.8354	0.39286
3.8382	0.39296
3.8411	0.39309
3.8439	0.39320
3.8468	0.39333
3.8496	0.39342
3.8525	0.39350
3.8553	0.39361
3.8582	0.39372
3.8611	0.39380
3.8639	0.39392
3.8668	0.39400
3.8697	0.39408
3.8726	0.39413
3.8755	0.39422
3.8784	0.39434
3.8813	0.39446
3.8842	0.39452
3.8871	0.39463
3.89	0.39471
3.893	0.39478
3.8959	0.39485
3.8988	0.39495
3.9017	0.39500
3.9047	0.39507
3.9076	0.39515
3.9106	0.39522
3.9135	0.39527
3.9165	0.39533
3.9194	0.39537
3.9224	0.39542
3.9254	0.39546
3.9284	0.39551
3.9313	0.39557
3.9343	0.39567
3.9373	0.39571
3.9403	0.39576
3.9433	0.39579
3.9463	0.39585
3.9493	0.39588
3.9523	0.39592
3.9553	0.39593
3.9583	0.39600
3.9614	0.39602
3.9644	0.39602
3.9674	0.39604
3.9705	0.39612
3.9735	0.39614
3.9766	0.39615
3.9796	0.39619
3.9826	0.39624
3.9857	0.39623
3.9888	0.39628
3.9919	0.39633
3.9949	0.39638
3.998	0.39640
4.0011	0.39644
4.0042	0.39644
4.0073	0.39647
4.0104	0.39650
4.0135	0.39651
4.0166	0.39648
4.0197	0.39649
4.0228	0.39651
4.0259	0.39653
4.0291	0.39651
4.0322	0.39655
4.0353	0.39657
4.0385	0.39660
4.0416	0.39659
4.0448	0.39661
4.0479	0.39660
4.0511	0.39664
4.0543	0.39665
4.0574	0.39668
4.0606	0.39670
4.0638	0.39671
4.067	0.39671
4.0702	0.39676
4.0734	0.39673
4.0766	0.39675
4.0798	0.39675
4.083	0.39677
4.0862	0.39676
4.0894	0.39679
4.0927	0.39676
4.0959	0.39676
4.0991	0.39676
4.1024	0.39679
4.1056	0.39678
4.1089	0.39681
4.1121	0.39680
4.1154	0.39681
4.1187	0.39678
4.122	0.39678
4.1252	0.39677
4.1285	0.39679
4.1318	0.39676
4.1351	0.39677
4.1384	0.39677
4.1417	0.39682
4.145	0.39680
4.1483	0.39679
4.1516	0.39678
4.155	0.39678
4.1583	0.39676
4.1616	0.39676
4.165	0.39671
4.1683	0.39669
4.1717	0.39664
4.175	0.39661
4.1784	0.39655
4.1818	0.39655
4.1852	0.39651
4.1885	0.39648
4.1919	0.39642
4.1953	0.39642
4.1987	0.39638
4.2021	0.39638
4.2055	0.39638
4.2089	0.39645
4.2124	0.39653
4.2158	0.39665
4.2192	0.39665
4.2226	0.39668
4.2261	0.39665
4.2295	0.39662
4.233	0.39647
4.2365	0.39635
4.2399	0.39619
4.2434	0.39603
4.2469	0.39577
4.2503	0.39547
4.2538	0.39509
4.2573	0.39491
4.2608	0.39487
4.2643	0.39487
4.2678	0.39475
4.2714	0.39462
4.2749	0.39439
4.2784	0.39415
4.2819	0.39385
4.2855	0.39363
4.289	0.39335
4.2926	0.39305
4.2961	0.39268
4.2997	0.39232
4.3033	0.39196
4.3068	0.39165
4.3104	0.39125
4.314	0.39087
4.3176	0.39051
4.3212	0.39023
4.3248	0.38989
4.3284	0.38958
4.332	0.38925
4.3356	0.38893
4.3393	0.38860
4.3429	0.38832
4.3465	0.38803
4.3502	0.38777
4.3538	0.38744
4.3575	0.38716
4.3611	0.38684
4.3648	0.38658
4.3685	0.38629
4.3722	0.38601
4.3759	0.38570
4.3796	0.38545
4.3833	0.38517
4.387	0.38493
4.3907	0.38466
4.3944	0.38449
4.3981	0.38425
4.4019	0.38402
4.4056	0.38378
4.4094	0.38360
4.4131	0.38339
4.4169	0.38323
4.4206	0.38302
4.4244	0.38288
4.4282	0.38273
4.432	0.38260
4.4358	0.38241
4.4396	0.38228
4.4434	0.38212
4.4472	0.38201
4.451	0.38184
4.4548	0.38168
4.4586	0.38146
4.4625	0.38128
4.4663	0.38103
4.4702	0.38080
4.474	0.38052
4.4779	0.38031
4.4818	0.38003
4.4856	0.37972
4.4895	0.37940
4.4934	0.37914
4.4973	0.37879
4.5012	0.37845
4.5051	0.37808
4.509	0.37772
4.513	0.37734
4.5169	0.37698
4.5208	0.37654
4.5248	0.37613
4.5287	0.37568
4.5327	0.37527
4.5367	0.37480
4.5406	0.37437
4.5446	0.37389
4.5486	0.37338
4.5526	0.37284
4.5566	0.37236
4.5606	0.37181
4.5646	0.37127
4.5686	0.37067
4.5727	0.37011
4.5767	0.36947
4.5808	0.36885
4.5848	0.36818
4.5889	0.36755
4.5929	0.36686
4.597	0.36617
4.6011	0.36540
4.6052	0.36464
4.6093	0.36383
4.6134	0.36305
4.6175	0.36218
4.6216	0.36133
4.6257	0.36046
4.6298	0.35963
4.634	0.35873
4.6381	0.35790
4.6423	0.35707
4.6464	0.35629
4.6506	0.35551
4.6548	0.35480
4.659	0.35408
4.6631	0.35343
4.6673	0.35273
4.6715	0.35207
4.6758	0.35138
4.68	0.35071
4.6842	0.34997
4.6884	0.34929
4.6927	0.34857
4.6969	0.34787
